May 6, 2023   17:35:36
Linear Sweep Voltammetry
File: d:\Data Source:  Experiment
Instrument Model:  CHI750E
Header: 
Note: 

Init E (V) = -0.1
Final E (V) = 0.8
Scan Rate (V/s) = 0.01
Sample Interval (V) = 0.001
Quiet Time (sec) = 2
Sensitivity (A/V) = 0.001

Results:

Channel 1:

Potential/V, Current/A

-0.100, 7.356e-4
-0.099, 7.187e-4
-0.098, 7.076e-4
-0.097, 7.018e-4
-0.096, 6.997e-4
-0.095, 6.990e-4
-0.094, 6.986e-4
-0.093, 6.971e-4
-0.092, 6.947e-4
-0.091, 6.932e-4
-0.090, 6.939e-4
-0.089, 6.946e-4
-0.088, 6.948e-4
-0.087, 6.952e-4
-0.086, 6.953e-4
-0.085, 6.947e-4
-0.084, 6.942e-4
-0.083, 6.938e-4
-0.082, 6.941e-4
-0.081, 6.943e-4
-0.080, 6.945e-4
-0.079, 6.945e-4
-0.078, 6.949e-4
-0.077, 6.949e-4
-0.076, 6.948e-4
-0.075, 6.952e-4
-0.074, 6.955e-4
-0.073, 6.952e-4
-0.072, 6.932e-4
-0.071, 6.932e-4
-0.070, 6.945e-4
-0.069, 6.951e-4
-0.068, 6.952e-4
-0.067, 6.962e-4
-0.066, 6.975e-4
-0.065, 6.986e-4
-0.064, 6.985e-4
-0.063, 6.994e-4
-0.062, 6.981e-4
-0.061, 6.986e-4
-0.060, 6.998e-4
-0.059, 7.003e-4
-0.058, 7.006e-4
-0.057, 7.017e-4
-0.056, 7.031e-4
-0.055, 7.010e-4
-0.054, 7.014e-4
-0.053, 7.022e-4
-0.052, 7.009e-4
-0.051, 7.020e-4
-0.050, 7.032e-4
-0.049, 7.034e-4
-0.048, 7.032e-4
-0.047, 7.036e-4
-0.046, 7.033e-4
-0.045, 7.033e-4
-0.044, 7.032e-4
-0.043, 7.046e-4
-0.042, 7.041e-4
-0.041, 7.044e-4
-0.040, 7.058e-4
-0.039, 7.065e-4
-0.038, 7.057e-4
-0.037, 7.068e-4
-0.036, 7.085e-4
-0.035, 7.084e-4
-0.034, 7.085e-4
-0.033, 7.093e-4
-0.032, 7.097e-4
-0.031, 7.081e-4
-0.030, 7.088e-4
-0.029, 7.096e-4
-0.028, 7.090e-4
-0.027, 7.093e-4
-0.026, 7.088e-4
-0.025, 7.100e-4
-0.024, 7.122e-4
-0.023, 7.115e-4
-0.022, 7.098e-4
-0.021, 7.087e-4
-0.020, 7.094e-4
-0.019, 7.092e-4
-0.018, 7.118e-4
-0.017, 7.124e-4
-0.016, 7.123e-4
-0.015, 7.110e-4
-0.014, 7.110e-4
-0.013, 7.121e-4
-0.012, 7.128e-4
-0.011, 7.132e-4
-0.010, 7.129e-4
-0.009, 7.128e-4
-0.008, 7.134e-4
-0.007, 7.144e-4
-0.006, 7.143e-4
-0.005, 7.166e-4
-0.004, 7.170e-4
-0.003, 7.142e-4
-0.002, 7.144e-4
-0.001, 7.149e-4
-0.000, 7.139e-4
0.001, 7.137e-4
0.002, 7.145e-4
0.003, 7.161e-4
0.004, 7.157e-4
0.005, 7.144e-4
0.006, 7.157e-4
0.007, 7.170e-4
0.008, 7.154e-4
0.009, 7.158e-4
0.010, 7.155e-4
0.011, 7.155e-4
0.012, 7.155e-4
0.013, 7.140e-4
0.014, 7.156e-4
0.015, 7.164e-4
0.016, 7.177e-4
0.017, 7.168e-4
0.018, 7.166e-4
0.019, 7.176e-4
0.020, 7.160e-4
0.021, 7.159e-4
0.022, 7.157e-4
0.023, 7.149e-4
0.024, 7.152e-4
0.025, 7.124e-4
0.026, 7.161e-4
0.027, 7.201e-4
0.028, 7.172e-4
0.029, 7.168e-4
0.030, 7.161e-4
0.031, 7.154e-4
0.032, 7.150e-4
0.033, 7.158e-4
0.034, 7.167e-4
0.035, 7.164e-4
0.036, 7.161e-4
0.037, 7.171e-4
0.038, 7.177e-4
0.039, 7.181e-4
0.040, 7.156e-4
0.041, 7.167e-4
0.042, 7.162e-4
0.043, 7.139e-4
0.044, 7.134e-4
0.045, 7.172e-4
0.046, 7.180e-4
0.047, 7.176e-4
0.048, 7.170e-4
0.049, 7.175e-4
0.050, 7.165e-4
0.051, 7.198e-4
0.052, 7.180e-4
0.053, 7.182e-4
0.054, 7.185e-4
0.055, 7.172e-4
0.056, 7.167e-4
0.057, 7.176e-4
0.058, 7.180e-4
0.059, 7.192e-4
0.060, 7.189e-4
0.061, 7.173e-4
0.062, 7.170e-4
0.063, 7.173e-4
0.064, 7.168e-4
0.065, 7.170e-4
0.066, 7.165e-4
0.067, 7.169e-4
0.068, 7.147e-4
0.069, 7.155e-4
0.070, 7.153e-4
0.071, 7.169e-4
0.072, 7.165e-4
0.073, 7.172e-4
0.074, 7.170e-4
0.075, 7.180e-4
0.076, 7.184e-4
0.077, 7.183e-4
0.078, 7.169e-4
0.079, 7.148e-4
0.080, 7.171e-4
0.081, 7.181e-4
0.082, 7.170e-4
0.083, 7.159e-4
0.084, 7.173e-4
0.085, 7.187e-4
0.086, 7.173e-4
0.087, 7.152e-4
0.088, 7.167e-4
0.089, 7.173e-4
0.090, 7.145e-4
0.091, 7.158e-4
0.092, 7.157e-4
0.093, 7.168e-4
0.094, 7.171e-4
0.095, 7.180e-4
0.096, 7.175e-4
0.097, 7.165e-4
0.098, 7.180e-4
0.099, 7.170e-4
0.100, 7.155e-4
0.101, 7.160e-4
0.102, 7.156e-4
0.103, 7.160e-4
0.104, 7.158e-4
0.105, 7.101e-4
0.106, 7.129e-4
0.107, 7.158e-4
0.108, 7.167e-4
0.109, 7.171e-4
0.110, 7.140e-4
0.111, 7.159e-4
0.112, 7.133e-4
0.113, 7.122e-4
0.114, 7.138e-4
0.115, 7.160e-4
0.116, 7.150e-4
0.117, 7.159e-4
0.118, 7.159e-4
0.119, 7.174e-4
0.120, 7.161e-4
0.121, 7.138e-4
0.122, 7.099e-4
0.123, 7.126e-4
0.124, 7.146e-4
0.125, 7.156e-4
0.126, 7.156e-4
0.127, 7.146e-4
0.128, 7.143e-4
0.129, 7.154e-4
0.130, 7.167e-4
0.131, 7.156e-4
0.132, 7.142e-4
0.133, 7.141e-4
0.134, 7.128e-4
0.135, 7.145e-4
0.136, 7.148e-4
0.137, 7.147e-4
0.138, 7.148e-4
0.139, 7.130e-4
0.140, 7.102e-4
0.141, 7.135e-4
0.142, 7.144e-4
0.143, 7.134e-4
0.144, 7.154e-4
0.145, 7.149e-4
0.146, 7.138e-4
0.147, 7.133e-4
0.148, 7.137e-4
0.149, 7.133e-4
0.150, 7.155e-4
0.151, 7.139e-4
0.152, 7.137e-4
0.153, 7.138e-4
0.154, 7.130e-4
0.155, 7.140e-4
0.156, 7.126e-4
0.157, 7.130e-4
0.158, 7.129e-4
0.159, 7.137e-4
0.160, 7.127e-4
0.161, 7.125e-4
0.162, 7.128e-4
0.163, 7.126e-4
0.164, 7.093e-4
0.165, 7.087e-4
0.166, 7.121e-4
0.167, 7.127e-4
0.168, 7.126e-4
0.169, 7.121e-4
0.170, 7.110e-4
0.171, 7.119e-4
0.172, 7.122e-4
0.173, 7.107e-4
0.174, 7.113e-4
0.175, 7.113e-4
0.176, 7.111e-4
0.177, 7.112e-4
0.178, 7.109e-4
0.179, 7.070e-4
0.180, 7.077e-4
0.181, 7.096e-4
0.182, 7.122e-4
0.183, 7.111e-4
0.184, 7.114e-4
0.185, 7.113e-4
0.186, 7.113e-4
0.187, 7.110e-4
0.188, 7.076e-4
0.189, 7.095e-4
0.190, 7.040e-4
0.191, 7.090e-4
0.192, 7.096e-4
0.193, 7.110e-4
0.194, 7.107e-4
0.195, 7.098e-4
0.196, 7.102e-4
0.197, 7.100e-4
0.198, 7.092e-4
0.199, 7.097e-4
0.200, 7.111e-4
0.201, 7.101e-4
0.202, 7.091e-4
0.203, 7.090e-4
0.204, 7.089e-4
0.205, 7.080e-4
0.206, 7.097e-4
0.207, 7.093e-4
0.208, 7.098e-4
0.209, 7.089e-4
0.210, 7.096e-4
0.211, 7.088e-4
0.212, 7.105e-4
0.213, 7.093e-4
0.214, 7.074e-4
0.215, 7.067e-4
0.216, 7.056e-4
0.217, 7.060e-4
0.218, 7.072e-4
0.219, 7.066e-4
0.220, 7.074e-4
0.221, 7.081e-4
0.222, 7.054e-4
0.223, 7.071e-4
0.224, 7.073e-4
0.225, 7.068e-4
0.226, 7.065e-4
0.227, 7.059e-4
0.228, 7.065e-4
0.229, 7.058e-4
0.230, 7.066e-4
0.231, 7.069e-4
0.232, 7.068e-4
0.233, 7.042e-4
0.234, 7.054e-4
0.235, 7.059e-4
0.236, 7.051e-4
0.237, 7.052e-4
0.238, 7.054e-4
0.239, 7.044e-4
0.240, 7.038e-4
0.241, 7.032e-4
0.242, 7.021e-4
0.243, 6.982e-4
0.244, 7.022e-4
0.245, 7.051e-4
0.246, 7.065e-4
0.247, 7.050e-4
0.248, 7.041e-4
0.249, 7.033e-4
0.250, 7.054e-4
0.251, 7.052e-4
0.252, 7.033e-4
0.253, 7.032e-4
0.254, 7.025e-4
0.255, 7.025e-4
0.256, 7.022e-4
0.257, 7.020e-4
0.258, 7.010e-4
0.259, 7.007e-4
0.260, 7.023e-4
0.261, 7.034e-4
0.262, 7.022e-4
0.263, 6.997e-4
0.264, 6.992e-4
0.265, 7.019e-4
0.266, 7.049e-4
0.267, 7.046e-4
0.268, 7.021e-4
0.269, 7.025e-4
0.270, 7.014e-4
0.271, 6.983e-4
0.272, 6.992e-4
0.273, 7.012e-4
0.274, 7.003e-4
0.275, 6.995e-4
0.276, 6.997e-4
0.277, 6.994e-4
0.278, 6.988e-4
0.279, 6.981e-4
0.280, 6.983e-4
0.281, 6.979e-4
0.282, 6.968e-4
0.283, 6.974e-4
0.284, 6.986e-4
0.285, 6.978e-4
0.286, 6.968e-4
0.287, 6.984e-4
0.288, 6.985e-4
0.289, 6.976e-4
0.290, 6.967e-4
0.291, 6.973e-4
0.292, 6.969e-4
0.293, 6.950e-4
0.294, 6.939e-4
0.295, 6.948e-4
0.296, 6.952e-4
0.297, 6.935e-4
0.298, 6.944e-4
0.299, 6.945e-4
0.300, 6.939e-4
0.301, 6.925e-4
0.302, 6.926e-4
0.303, 6.942e-4
0.304, 6.941e-4
0.305, 6.932e-4
0.306, 6.933e-4
0.307, 6.921e-4
0.308, 6.926e-4
0.309, 6.936e-4
0.310, 6.921e-4
0.311, 6.923e-4
0.312, 6.920e-4
0.313, 6.912e-4
0.314, 6.894e-4
0.315, 6.893e-4
0.316, 6.893e-4
0.317, 6.892e-4
0.318, 6.887e-4
0.319, 6.877e-4
0.320, 6.879e-4
0.321, 6.894e-4
0.322, 6.894e-4
0.323, 6.881e-4
0.324, 6.875e-4
0.325, 6.875e-4
0.326, 6.872e-4
0.327, 6.859e-4
0.328, 6.872e-4
0.329, 6.865e-4
0.330, 6.832e-4
0.331, 6.829e-4
0.332, 6.845e-4
0.333, 6.842e-4
0.334, 6.854e-4
0.335, 6.850e-4
0.336, 6.846e-4
0.337, 6.845e-4
0.338, 6.840e-4
0.339, 6.822e-4
0.340, 6.823e-4
0.341, 6.824e-4
0.342, 6.824e-4
0.343, 6.815e-4
0.344, 6.818e-4
0.345, 6.832e-4
0.346, 6.820e-4
0.347, 6.815e-4
0.348, 6.811e-4
0.349, 6.798e-4
0.350, 6.792e-4
0.351, 6.779e-4
0.352, 6.783e-4
0.353, 6.790e-4
0.354, 6.780e-4
0.355, 6.781e-4
0.356, 6.787e-4
0.357, 6.777e-4
0.358, 6.759e-4
0.359, 6.762e-4
0.360, 6.764e-4
0.361, 6.768e-4
0.362, 6.773e-4
0.363, 6.769e-4
0.364, 6.756e-4
0.365, 6.738e-4
0.366, 6.744e-4
0.367, 6.743e-4
0.368, 6.736e-4
0.369, 6.735e-4
0.370, 6.741e-4
0.371, 6.729e-4
0.372, 6.749e-4
0.373, 6.727e-4
0.374, 6.715e-4
0.375, 6.705e-4
0.376, 6.699e-4
0.377, 6.695e-4
0.378, 6.692e-4
0.379, 6.692e-4
0.380, 6.703e-4
0.381, 6.697e-4
0.382, 6.679e-4
0.383, 6.681e-4
0.384, 6.675e-4
0.385, 6.680e-4
0.386, 6.673e-4
0.387, 6.652e-4
0.388, 6.643e-4
0.389, 6.658e-4
0.390, 6.665e-4
0.391, 6.651e-4
0.392, 6.604e-4
0.393, 6.618e-4
0.394, 6.636e-4
0.395, 6.631e-4
0.396, 6.636e-4
0.397, 6.631e-4
0.398, 6.632e-4
0.399, 6.615e-4
0.400, 6.620e-4
0.401, 6.599e-4
0.402, 6.607e-4
0.403, 6.612e-4
0.404, 6.605e-4
0.405, 6.598e-4
0.406, 6.593e-4
0.407, 6.578e-4
0.408, 6.574e-4
0.409, 6.576e-4
0.410, 6.573e-4
0.411, 6.574e-4
0.412, 6.568e-4
0.413, 6.556e-4
0.414, 6.553e-4
0.415, 6.545e-4
0.416, 6.538e-4
0.417, 6.547e-4
0.418, 6.539e-4
0.419, 6.514e-4
0.420, 6.506e-4
0.421, 6.520e-4
0.422, 6.523e-4
0.423, 6.517e-4
0.424, 6.526e-4
0.425, 6.501e-4
0.426, 6.467e-4
0.427, 6.483e-4
0.428, 6.477e-4
0.429, 6.475e-4
0.430, 6.472e-4
0.431, 6.462e-4
0.432, 6.453e-4
0.433, 6.453e-4
0.434, 6.455e-4
0.435, 6.450e-4
0.436, 6.435e-4
0.437, 6.426e-4
0.438, 6.421e-4
0.439, 6.414e-4
0.440, 6.406e-4
0.441, 6.393e-4
0.442, 6.388e-4
0.443, 6.384e-4
0.444, 6.376e-4
0.445, 6.375e-4
0.446, 6.366e-4
0.447, 6.361e-4
0.448, 6.356e-4
0.449, 6.341e-4
0.450, 6.336e-4
0.451, 6.336e-4
0.452, 6.318e-4
0.453, 6.302e-4
0.454, 6.313e-4
0.455, 6.309e-4
0.456, 6.303e-4
0.457, 6.303e-4
0.458, 6.293e-4
0.459, 6.284e-4
0.460, 6.275e-4
0.461, 6.266e-4
0.462, 6.252e-4
0.463, 6.247e-4
0.464, 6.233e-4
0.465, 6.218e-4
0.466, 6.210e-4
0.467, 6.208e-4
0.468, 6.197e-4
0.469, 6.199e-4
0.470, 6.192e-4
0.471, 6.177e-4
0.472, 6.171e-4
0.473, 6.161e-4
0.474, 6.153e-4
0.475, 6.145e-4
0.476, 6.146e-4
0.477, 6.139e-4
0.478, 6.132e-4
0.479, 6.129e-4
0.480, 6.120e-4
0.481, 6.112e-4
0.482, 6.103e-4
0.483, 6.092e-4
0.484, 6.071e-4
0.485, 6.064e-4
0.486, 6.065e-4
0.487, 6.051e-4
0.488, 6.046e-4
0.489, 6.038e-4
0.490, 6.026e-4
0.491, 6.015e-4
0.492, 6.008e-4
0.493, 6.000e-4
0.494, 5.986e-4
0.495, 5.979e-4
0.496, 5.963e-4
0.497, 5.957e-4
0.498, 5.951e-4
0.499, 5.936e-4
0.500, 5.922e-4
0.501, 5.924e-4
0.502, 5.927e-4
0.503, 5.910e-4
0.504, 5.899e-4
0.505, 5.888e-4
0.506, 5.872e-4
0.507, 5.859e-4
0.508, 5.844e-4
0.509, 5.825e-4
0.510, 5.829e-4
0.511, 5.834e-4
0.512, 5.811e-4
0.513, 5.790e-4
0.514, 5.778e-4
0.515, 5.765e-4
0.516, 5.752e-4
0.517, 5.737e-4
0.518, 5.721e-4
0.519, 5.708e-4
0.520, 5.695e-4
0.521, 5.679e-4
0.522, 5.664e-4
0.523, 5.650e-4
0.524, 5.630e-4
0.525, 5.617e-4
0.526, 5.606e-4
0.527, 5.591e-4
0.528, 5.565e-4
0.529, 5.532e-4
0.530, 5.528e-4
0.531, 5.524e-4
0.532, 5.507e-4
0.533, 5.497e-4
0.534, 5.471e-4
0.535, 5.429e-4
0.536, 5.419e-4
0.537, 5.406e-4
0.538, 5.390e-4
0.539, 5.360e-4
0.540, 5.340e-4
0.541, 5.327e-4
0.542, 5.303e-4
0.543, 5.280e-4
0.544, 5.259e-4
0.545, 5.233e-4
0.546, 5.209e-4
0.547, 5.186e-4
0.548, 5.160e-4
0.549, 5.134e-4
0.550, 5.103e-4
0.551, 5.074e-4
0.552, 5.046e-4
0.553, 5.017e-4
0.554, 4.989e-4
0.555, 4.956e-4
0.556, 4.919e-4
0.557, 4.886e-4
0.558, 4.870e-4
0.559, 4.847e-4
0.560, 4.805e-4
0.561, 4.770e-4
0.562, 4.734e-4
0.563, 4.694e-4
0.564, 4.654e-4
0.565, 4.623e-4
0.566, 4.586e-4
0.567, 4.530e-4
0.568, 4.481e-4
0.569, 4.460e-4
0.570, 4.427e-4
0.571, 4.389e-4
0.572, 4.347e-4
0.573, 4.304e-4
0.574, 4.261e-4
0.575, 4.216e-4
0.576, 4.169e-4
0.577, 4.124e-4
0.578, 4.082e-4
0.579, 4.034e-4
0.580, 3.985e-4
0.581, 3.936e-4
0.582, 3.889e-4
0.583, 3.834e-4
0.584, 3.783e-4
0.585, 3.735e-4
0.586, 3.685e-4
0.587, 3.636e-4
0.588, 3.584e-4
0.589, 3.530e-4
0.590, 3.476e-4
0.591, 3.421e-4
0.592, 3.369e-4
0.593, 3.316e-4
0.594, 3.260e-4
0.595, 3.204e-4
0.596, 3.147e-4
0.597, 3.090e-4
0.598, 3.034e-4
0.599, 2.978e-4
0.600, 2.921e-4
0.601, 2.863e-4
0.602, 2.806e-4
0.603, 2.749e-4
0.604, 2.691e-4
0.605, 2.633e-4
0.606, 2.577e-4
0.607, 2.520e-4
0.608, 2.462e-4
0.609, 2.403e-4
0.610, 2.345e-4
0.611, 2.288e-4
0.612, 2.229e-4
0.613, 2.172e-4
0.614, 2.115e-4
0.615, 2.058e-4
0.616, 2.002e-4
0.617, 1.944e-4
0.618, 1.889e-4
0.619, 1.834e-4
0.620, 1.780e-4
0.621, 1.725e-4
0.622, 1.670e-4
0.623, 1.615e-4
0.624, 1.561e-4
0.625, 1.509e-4
0.626, 1.457e-4
0.627, 1.406e-4
0.628, 1.354e-4
0.629, 1.304e-4
0.630, 1.254e-4
0.631, 1.206e-4
0.632, 1.159e-4
0.633, 1.110e-4
0.634, 1.064e-4
0.635, 1.019e-4
0.636, 9.732e-5
0.637, 9.288e-5
0.638, 8.844e-5
0.639, 8.407e-5
0.640, 7.972e-5
0.641, 7.560e-5
0.642, 7.162e-5
0.643, 6.772e-5
0.644, 6.375e-5
0.645, 5.996e-5
0.646, 5.620e-5
0.647, 5.250e-5
0.648, 4.899e-5
0.649, 4.551e-5
0.650, 4.218e-5
0.651, 3.892e-5
0.652, 3.564e-5
0.653, 3.246e-5
0.654, 2.945e-5
0.655, 2.647e-5
0.656, 2.368e-5
0.657, 2.090e-5
0.658, 1.817e-5
0.659, 1.546e-5
0.660, 1.288e-5
0.661, 1.045e-5
0.662, 8.041e-6
0.663, 5.743e-6
0.664, 3.520e-6
0.665, 1.136e-6
0.666, -1.051e-6
0.667, -2.972e-6
0.668, -5.068e-6
0.669, -6.959e-6
0.670, -8.821e-6
0.671, -1.070e-5
0.672, -1.244e-5
0.673, -1.409e-5
0.674, -1.570e-5
0.675, -1.726e-5
0.676, -1.882e-5
0.677, -2.022e-5
0.678, -2.162e-5
0.679, -2.298e-5
0.680, -2.422e-5
0.681, -2.564e-5
0.682, -2.693e-5
0.683, -2.807e-5
0.684, -2.924e-5
0.685, -3.040e-5
0.686, -3.137e-5
0.687, -3.238e-5
0.688, -3.332e-5
0.689, -3.428e-5
0.690, -3.524e-5
0.691, -3.607e-5
0.692, -3.692e-5
0.693, -3.768e-5
0.694, -3.849e-5
0.695, -3.925e-5
0.696, -3.993e-5
0.697, -4.066e-5
0.698, -4.138e-5
0.699, -4.197e-5
0.700, -4.264e-5
0.701, -4.325e-5
0.702, -4.383e-5
0.703, -4.443e-5
0.704, -4.495e-5
0.705, -4.549e-5
0.706, -4.600e-5
0.707, -4.651e-5
0.708, -4.700e-5
0.709, -4.747e-5
0.710, -4.797e-5
0.711, -4.850e-5
0.712, -4.879e-5
0.713, -4.921e-5
0.714, -4.957e-5
0.715, -4.991e-5
0.716, -5.038e-5
0.717, -5.081e-5
0.718, -5.112e-5
0.719, -5.150e-5
0.720, -5.170e-5
0.721, -5.203e-5
0.722, -5.234e-5
0.723, -5.267e-5
0.724, -5.301e-5
0.725, -5.321e-5
0.726, -5.352e-5
0.727, -5.384e-5
0.728, -5.406e-5
0.729, -5.437e-5
0.730, -5.466e-5
0.731, -5.484e-5
0.732, -5.515e-5
0.733, -5.535e-5
0.734, -5.554e-5
0.735, -5.587e-5
0.736, -5.610e-5
0.737, -5.630e-5
0.738, -5.652e-5
0.739, -5.669e-5
0.740, -5.694e-5
0.741, -5.712e-5
0.742, -5.736e-5
0.743, -5.755e-5
0.744, -5.767e-5
0.745, -5.788e-5
0.746, -5.805e-5
0.747, -5.829e-5
0.748, -5.853e-5
0.749, -5.873e-5
0.750, -5.889e-5
0.751, -5.910e-5
0.752, -5.923e-5
0.753, -5.935e-5
0.754, -5.958e-5
0.755, -5.978e-5
0.756, -5.999e-5
0.757, -6.010e-5
0.758, -6.025e-5
0.759, -6.045e-5
0.760, -6.057e-5
0.761, -6.077e-5
0.762, -6.097e-5
0.763, -6.103e-5
0.764, -6.126e-5
0.765, -6.137e-5
0.766, -6.150e-5
0.767, -6.171e-5
0.768, -6.206e-5
0.769, -6.206e-5
0.770, -6.218e-5
0.771, -6.225e-5
0.772, -6.236e-5
0.773, -6.253e-5
0.774, -6.276e-5
0.775, -6.287e-5
0.776, -6.293e-5
0.777, -6.309e-5
0.778, -6.330e-5
0.779, -6.342e-5
0.780, -6.357e-5
0.781, -6.371e-5
0.782, -6.384e-5
0.783, -6.402e-5
0.784, -6.408e-5
0.785, -6.422e-5
0.786, -6.438e-5
0.787, -6.456e-5
0.788, -6.470e-5
0.789, -6.479e-5
0.790, -6.496e-5
0.791, -6.511e-5
0.792, -6.518e-5
0.793, -6.533e-5
0.794, -6.547e-5
0.795, -6.556e-5
0.796, -6.574e-5
0.797, -6.579e-5
0.798, -6.596e-5
0.799, -6.613e-5
